# 'raman_27.6G_p1'	'Int_27.6G_p1'
46.756	1433.64
47.468	1468.91
48.18	1506
48.892	1523.45
49.604	1555.64
50.316	1597.45
51.028	1620.91
51.74	1666
52.452	1696
53.164	1712.36
53.875	1761.45
54.587	1844.36
55.298	1889.45
56.01	1952.18
56.721	1989.09
57.432	2108.91
58.143	2212
58.854	2352.73
59.565	2482.73
60.276	2656.91
60.987	2763.27
61.698	2819.45
62.408	2953.27
63.119	3121.27
63.829	3273.64
64.54	3448.91
65.25	3614
65.96	3783.64
66.671	3966.36
67.381	4030.18
68.091	4188.91
68.801	4292.18
69.51	4339.27
70.22	4475.82
70.93	4572.36
71.64	4607.64
72.349	4747.82
73.059	4692.18
73.768	4798.91
74.477	4752.18
75.186	4837.82
75.896	4803.82
76.605	4868.55
77.314	4831.09
78.023	4818
78.731	4808
79.44	4745.09
80.149	4725.45
80.857	4662.55
81.566	4678.91
82.274	4701.45
82.983	4830.91
83.691	4861.82
84.399	4859.82
85.107	4862.36
85.815	4780.36
86.523	4734
87.231	4693.64
87.939	4682.36
88.647	4668.55
89.354	4725.82
90.062	4747.45
90.769	4712.55
91.477	4777.82
92.184	4870.18
92.891	4834
93.598	4812.91
94.306	4718.55
95.013	4767.45
95.719	4772.91
96.426	4733.27
97.133	4707.64
97.84	4628.36
98.546	4631.09
99.253	4638.36
99.959	4664.91
100.666	4666.55
101.372	4704.36
102.078	4680.55
102.784	4646.36
103.49	4658.36
104.196	4642.91
104.902	4685.27
105.608	4726.91
106.314	4681.45
107.02	4823.64
107.725	4820.73
108.431	4819.27
109.136	4763.45
109.841	4702.36
110.547	4648.55
111.252	4619.45
111.957	4661.64
112.662	4582.36
113.367	4700.55
114.072	4714.91
114.777	4652.36
115.481	4698
116.186	4752.91
116.891	4761.09
117.595	4728.55
118.299	4730.55
119.004	4757.45
119.708	4779.45
120.412	4711.82
121.116	4707.64
121.82	4668.36
122.524	4752.18
123.228	4711.09
123.932	4720.91
124.636	4686.91
125.339	4656.55
126.043	4608.73
126.746	4551.27
127.45	4567.64
128.153	4580.55
128.856	4538.36
129.559	4543.27
130.262	4559.45
130.965	4579.82
131.668	4611.09
132.371	4611.09
133.074	4584.18
133.776	4543.45
134.479	4576.18
135.181	4512.55
135.884	4605.09
136.586	4587.64
137.289	4546.18
137.991	4625.82
138.693	4571.64
139.395	4638.55
140.097	4698
140.799	4684.55
141.501	4647.82
142.202	4588.36
142.904	4542.55
143.606	4587.82
144.307	4541.64
145.008	4582.73
145.71	4526.36
146.411	4562
147.112	4506.91
147.813	4534.73
148.514	4579.45
149.215	4586.73
149.916	4542
150.617	4644.91
151.318	4570.55
152.018	4607.27
152.719	4641.09
153.419	4610.55
154.12	4607.64
154.82	4651.27
155.52	4675.82
156.22	4631.64
156.921	4694
157.621	4678.55
158.321	4712.55
159.02	4704.36
159.72	4694.18
160.42	4711.45
161.119	4756
161.819	4789.09
162.518	4849.45
163.218	4786.18
163.917	4859.82
164.616	4836.55
165.316	4849.64
166.015	4895.82
166.714	4907.64
167.412	4986.36
168.111	5001.45
168.81	4989.27
169.509	5021.27
170.207	5056
170.906	5078.73
171.604	5065.45
172.303	5201.09
173.001	5151.27
173.699	5194.91
174.397	5175.64
175.095	5305.82
175.793	5312.18
176.491	5308.55
177.189	5388.18
177.887	5439.64
178.584	5503.09
179.282	5460.55
179.98	5490.91
180.677	5555.82
181.374	5614.91
182.072	5648.18
182.769	5675.27
183.466	5733.64
184.163	5731.27
184.86	5735.27
185.557	5788.55
186.254	5790.55
186.95	5772
187.647	5802.55
188.344	5812.36
189.04	5723.09
189.737	5759.45
190.433	5723.09
191.129	5775.64
191.825	5669.45
192.521	5666
193.217	5594
193.913	5578.91
194.609	5570
195.305	5510.18
196.001	5512
196.696	5482.18
197.392	5368.36
198.087	5409.82
198.783	5382.73
199.478	5301.27
200.173	5268.55
200.869	5290.36
201.564	5313.82
202.259	5366
202.954	5227.09
203.649	5185.82
204.343	5293.09
205.038	5342.73
205.733	5225.27
206.427	5319.27
207.122	5240.18
207.816	5283.82
208.51	5217.82
209.205	5258.91
209.899	5284.36
210.593	5302.73
211.287	5316.55
211.981	5306.73
212.675	5276.73
213.369	5335.27
214.062	5251.27
214.756	5304.18
215.449	5309.45
216.143	5312.18
216.836	5328.36
217.53	5368.55
218.223	5342
218.916	5320.18
219.609	5362.18
220.302	5394.18
220.995	5283.64
221.688	5290.73
222.381	5357.27
223.073	5352.91
223.766	5268.91
224.458	5272
225.151	5371.27
225.843	5347.09
226.536	5402.18
227.228	5364.55
227.92	5407.09
228.612	5422.18
229.304	5444
229.996	5494.18
230.688	5465.09
231.38	5579.64
232.071	5631.64
232.763	5635.64
233.454	5700.55
234.146	5849.64
234.837	5850.73
235.529	5908.55
236.22	6038
236.911	6133.64
237.602	6344.55
238.293	6479.64
238.984	6646.91
239.675	6793.27
240.366	6991.82
241.056	7107.27
241.747	7286.91
242.437	7389.45
243.128	7385.45
243.818	7392
244.508	7382
245.199	7191.09
245.889	7168.91
246.579	6984.36
247.269	6868.55
247.959	6701.27
248.649	6544.91
249.338	6462.55
250.028	6249.09
250.718	6127.64
251.407	6114
252.097	5981.27
252.786	5830.18
253.475	5796.18
254.165	5696.36
254.854	5669.64
255.543	5650.73
256.232	5642
256.921	5502.36
257.61	5410
258.298	5351.82
258.987	5382.55
259.676	5277.09
260.364	5283.27
261.053	5188.73
261.741	5133.45
262.429	5199.27
263.117	5110.91
263.806	5069.82
264.494	5018
265.182	5077.64
265.87	4984.91
266.557	4906.55
267.245	4945.64
267.933	4912.55
268.62	4845.64
269.308	4911.09
269.995	4849.82
270.683	4832
271.37	4826.18
272.057	4765.82
272.745	4801.27
273.432	4756
274.119	4814.36
274.805	4764.91
275.492	4775.82
276.179	4766.55
276.866	4740.73
277.552	4752.91
278.239	4754.36
278.925	4760.55
279.612	4678.91
280.298	4747.45
280.984	4786
281.67	4749.09
282.357	4730.73
283.043	4733.09
283.728	4730.55
284.414	4752.91
285.1	4772.36
285.786	4753.45
286.471	4740.36
287.157	4762.55
287.842	4689.45
288.528	4729.09
289.213	4683.45
289.898	4707.64
290.583	4549.45
291.269	4596.55
291.954	4547.64
292.638	4495.45
293.323	4481.27
294.008	4454.18
294.693	4430.18
295.377	4356.91
296.062	4370
296.746	4376.55
297.431	4338.73
298.115	4287.45
298.799	4230.36
299.483	4261.09
300.168	4257.09
300.852	4228.73
301.536	4253.82
302.219	4162.18
302.903	4246.36
303.587	4209.45
304.27	4114.55
304.954	4152.36
305.638	4101.27
306.321	4138.91
307.004	4100.55
307.687	4118.55
308.371	4044.36
309.054	4036.91
309.737	4091.45
310.42	4091.64
311.103	4058.73
311.785	4034.91
312.468	4024.18
313.151	4014.91
313.833	3963.27
314.516	4016.73
315.198	3986.36
315.88	3974.18
316.563	3950
317.245	3984.73
317.927	3944.18
318.609	3953.64
319.291	3970.91
319.973	3935.27
320.655	3956.18
321.336	3928.55
322.018	3922.18
322.7	3903.82
323.381	3911.09
324.063	3932.55
324.744	3908.18
325.425	3905.45
326.106	3951.27
326.787	3869.09
327.468	3914
328.149	3881.45
328.83	3858.18
329.511	3858.36
330.192	3875.82
330.873	3882.36
331.553	3874.91
332.234	3872.36
332.914	3880.36
333.594	3872.18
334.275	3841.64
334.955	3868
335.635	3815.09
336.315	3825.27
336.995	3839.09
337.675	3830.18
338.355	3842.55
339.034	3821.64
339.714	3814.18
340.394	3802.73
341.073	3818.36
341.753	3815.45
342.432	3863.64
343.111	3810.36
343.791	3777.64
344.47	3746.18
345.149	3774.91
345.828	3805.82
346.507	3798
347.186	3752.73
347.864	3771.27
348.543	3786.18
349.222	3764.55
349.9	3796.18
350.579	3752.73
351.257	3788.18
351.935	3755.45
352.613	3770.36
353.292	3772.18
353.97	3760.55
354.648	3740
355.326	3757.09
356.004	3804.18
356.681	3739.45
357.359	3759.45
358.037	3814.18
358.714	3795.45
359.392	3688.91
360.069	3764.18
360.746	3766.36
361.424	3720.36
362.101	3760.36
362.778	3733.09
363.455	3699.27
364.132	3767.09
364.809	3736.91
365.486	3712.73
366.162	3738.18
366.839	3734.18
367.515	3688.73
368.192	3693.82
368.868	3738.36
369.545	3716
370.221	3692.73
370.897	3742.91
371.573	3730.18
372.249	3724.36
372.925	3697.09
373.601	3701.27
374.277	3693.09
374.953	3677.64
375.628	3658.55
376.304	3726
376.979	3702.55
377.655	3748.36
378.33	3704.36
379.006	3720.91
379.681	3687.45
380.356	3723.27
381.031	3654.73
381.706	3702
382.381	3734.36
383.056	3678.36
383.73	3700.73
384.405	3736
385.08	3696.18
385.754	3752.36
386.429	3710.91
387.103	3709.82
387.777	3681.27
388.452	3646.18
389.126	3715.45
389.8	3703.09
390.474	3696
391.148	3706.73
391.822	3708
392.495	3713.82
393.169	3721.64
393.843	3693.64
394.516	3697.64
395.19	3686.55
395.863	3702.36
396.537	3720.91
397.21	3697.45
397.883	3706.73
398.556	3733.82
399.229	3692
399.902	3690.18
400.575	3744.91
401.248	3724.73
401.921	3738.91
402.593	3675.27
403.266	3697.64
403.938	3723.82
404.611	3710.91
405.283	3709.64
405.955	3690.91
406.628	3672.36
407.3	3684
407.972	3700.91
408.644	3712.55
409.316	3693.64
409.987	3660.55
410.659	3671.64
411.331	3666
412.002	3691.09
412.674	3639.64
413.345	3656
414.017	3704.36
414.688	3680.18
415.359	3613.09
416.031	3722.36
416.702	3652.91
417.373	3690.91
418.044	3660
418.714	3668.55
419.385	3667.82
420.056	3653.09
420.726	3720
421.397	3646.36
422.068	3656.73
422.738	3660
423.408	3671.82
424.079	3690.91
424.749	3635.64
425.419	3647.64
426.089	3644.55
426.759	3647.45
427.429	3681.45
428.099	3600.73
428.768	3620.73
429.438	3636.18
430.107	3638.36
430.777	3647.27
431.446	3644.91
432.116	3644.55
432.785	3643.82
433.454	3613.09
434.123	3595.64
434.792	3609.45
435.461	3624.73
436.13	3644.36
436.799	3584.91
437.468	3648.73
438.137	3621.27
438.805	3671.45
439.474	3631.82
440.142	3600.18
440.811	3700
441.479	3567.09
442.147	3588.55
442.815	3611.82
443.484	3586.55
444.152	3605.45
444.819	3608.55
445.487	3605.64
446.155	3609.82
446.823	3638.55
447.491	3593.09
448.158	3597.64
448.826	3593.82
449.493	3613.64
450.16	3607.27
450.828	3612.55
451.495	3587.45
452.162	3586.55
452.829	3556.91
453.496	3589.45
454.163	3608
454.83	3570.55
455.496	3578
456.163	3562.55
456.83	3556
457.496	3566.18
458.163	3546.18
458.829	3579.64
459.495	3576.73
460.162	3595.45
460.828	3543.27
461.494	3570.91
462.16	3560.91
462.826	3545.45
463.492	3574.73
464.157	3563.64
464.823	3556
465.489	3620.73
466.154	3538.73
466.82	3546.91
467.485	3539.82
468.151	3499.64
468.816	3546.91
469.481	3538.36
470.146	3526.91
470.811	3563.27
471.476	3549.09
472.141	3562.91
472.806	3554.36
473.471	3482.18
474.135	3510.18
474.8	3528.73
475.465	3460
476.129	3503.45
476.793	3541.27
477.458	3530.36
478.122	3505.82
478.786	3531.27
479.45	3510.55
480.114	3540.73
480.778	3568
481.442	3536
482.106	3534
482.769	3536.36
483.433	3541.45
484.097	3516.36
484.76	3510.36
485.424	3536.36
486.087	3538.18
486.75	3533.27
487.413	3488
488.076	3520
488.74	3506.73
489.402	3509.45
490.065	3501.64
490.728	3581.64
491.391	3487.64
492.054	3501.09
492.716	3537.82
493.379	3490
494.041	3503.09
494.704	3502.18
495.366	3466
496.028	3494.91
496.69	3486.18
497.352	3500.73
498.014	3480
498.676	3454.36
499.338	3472.36
500	3487.64
500.662	3485.27
501.323	3494.55
501.985	3514.55
502.646	3457.09
503.308	3435.82
503.969	3491.27
504.63	3464.18
505.292	3469.64
505.953	3446.91
506.614	3490.55
507.275	3446
507.936	3473.09
508.597	3455.09
509.257	3476.73
509.918	3482
510.579	3456.73
511.239	3478.91
511.9	3438.36
512.56	3453.82
513.22	3441.64
513.881	3442.18
514.541	3522.55
515.201	3447.64
515.861	3468.18
516.521	3452.91
517.181	3490.73
517.84	3497.82
518.5	3445.45
519.16	3453.45
519.819	3470.18
520.479	3459.27
521.138	3391.45
521.798	3460.73
522.457	3387.82
523.116	3458.18
523.775	3409.82
524.434	3471.45
525.093	3410
525.752	3440.18
526.411	3421.64
527.07	3444.91
527.729	3416.91
528.387	3408.55
529.046	3431.09
529.704	3435.64
530.363	3414.91
531.021	3435.82
531.679	3440.91
532.338	3380.55
532.996	3445.09
533.654	3434.18
534.312	3485.09
534.97	3470.18
535.627	3388.73
536.285	3478.91
536.943	3416.55
537.6	3446.18
538.258	3486.73
538.915	3422.91
539.573	3423.82
540.23	3428.73
540.887	3404.91
541.544	3440.36
542.202	3429.09
542.859	3437.82
543.516	3430
544.172	3428
544.829	3468
545.486	3359.64
546.143	3447.64
546.799	3420.18
547.456	3399.09
548.112	3448.55
548.768	3410.73
549.425	3420.36
550.081	3432.18
550.737	3437.27
551.393	3401.09
552.049	3430.36
552.705	3413.27
553.361	3448.36
554.017	3407.82
554.672	3415.64
555.328	3403.09
555.983	3401.45
556.639	3461.09
557.294	3480.18
557.95	3410.73
558.605	3430.73
559.26	3450.36
559.915	3433.82
560.57	3380.73
561.225	3399.64
561.88	3419.09
562.535	3431.82
563.19	3392.55
563.844	3434.18
564.499	3415.64
565.154	3396.55
565.808	3405.09
566.462	3400.73
567.117	3446.73
567.771	3419.64
568.425	3433.45
569.079	3411.27
569.733	3410.55
570.387	3416.36
571.041	3432.73
571.695	3351.27
572.349	3360
573.002	3384.18
573.656	3433.09
574.309	3386.73
574.963	3390.55
575.616	3435.09
576.269	3418.36
576.923	3424.18
577.576	3385.82
578.229	3409.45
578.882	3416
579.535	3418.73
580.188	3387.82
580.84	3426.18
581.493	3414.91
582.146	3389.64
582.798	3374.91
583.451	3399.82
584.103	3400.73
584.755	3352.36
585.408	3420
586.06	3369.64
586.712	3405.64
587.364	3351.64
588.016	3386.18
588.668	3370.55
589.32	3426.55
589.972	3403.09
590.623	3378.36
591.275	3363.27
591.926	3393.64
592.578	3366.18
593.229	3395.64
593.881	3390.91
594.532	3376.73
595.183	3390
595.834	3378.91
596.485	3325.09
597.136	3340
597.787	3388
598.438	3364.91
599.089	3358.55
599.739	3419.64
600.39	3379.64
601.04	3375.82
601.691	3354.91
602.341	3417.82
602.992	3391.45
603.642	3328.36
604.292	3352.55
604.942	3348.36
605.592	3372
606.242	3359.64
606.892	3334.91
607.542	3358
608.192	3330
608.841	3386.18
609.491	3381.64
610.14	3326.55
610.79	3296.73
611.439	3357.09
612.088	3393.27
612.738	3381.45
613.387	3352
614.036	3310.36
614.685	3350.91
615.334	3360.55
615.983	3364.18
616.631	3390.55
617.28	3361.64
617.929	3343.82
618.577	3332.55
619.226	3318.55
619.874	3317.09
620.523	3313.82
621.171	3379.64
621.819	3356.91
622.467	3303.27
623.115	3350.73
623.763	3324.73
624.411	3318.91
625.059	3332.36
625.707	3343.27
626.355	3351.45
627.002	3348.36
627.65	3342.73
628.297	3344.36
628.945	3346
629.592	3338.55
630.239	3320.55
630.887	3351.27
631.534	3294.73
632.181	3353.82
632.828	3292.91
633.475	3348.55
634.122	3322.18
634.768	3306.55
635.415	3326.36
636.062	3292.36
636.708	3365.45
637.355	3275.45
638.001	3324.73
638.647	3290.91
639.294	3305.82
639.94	3296.18
640.586	3270.55
641.232	3332.18
641.878	3302.73
642.524	3325.64
643.17	3317.09
643.816	3311.82
644.461	3329.45
645.107	3347.27
645.752	3315.64
646.398	3335.09
647.043	3275.45
647.689	3335.45
648.334	3334.73
648.979	3326
649.624	3272.91
650.269	3279.27
650.914	3307.82
651.559	3295.45
652.204	3346.91
652.849	3342.55
653.493	3294
654.138	3338.91
654.783	3261.82
655.427	3338.55
656.071	3293.82
656.716	3275.64
657.36	3294.73
658.004	3305.27
658.648	3355.27
659.292	3280.36
659.936	3304.91
660.58	3299.45
661.224	3317.45
661.868	3288
662.512	3341.27
663.155	3306.91
663.799	3290.36
664.442	3288
665.086	3305.27
665.729	3298.91
666.372	3360.73
667.015	3274.36
667.658	3267.09
668.301	3314.55
668.944	3322.91
669.587	3278
670.23	3297.27
670.873	3339.82
671.516	3355.09
672.158	3311.27
672.801	3263.64
673.443	3294.36
674.086	3338.91
674.728	3312.55
675.37	3278.36
676.012	3312
676.654	3302.55
677.296	3269.27
677.938	3264
678.58	3233.27
679.222	3346.36
679.864	3289.64
680.506	3308.36
681.147	3300.91
681.789	3299.45
682.43	3284.18
683.072	3360.73
683.713	3257.45
684.354	3290.73
684.995	3324.55
685.636	3328.36
686.277	3279.27
686.918	3295.82
687.559	3253.82
688.2	3267.64
688.841	3301.82
689.482	3269.27
690.122	3277.09
690.763	3285.09
691.403	3267.45
692.044	3272.55
692.684	3297.82
693.324	3256.18
693.964	3263.45
694.604	3272.55
695.244	3309.45
695.884	3231.64
696.524	3236.36
697.164	3304
697.804	3298.55
698.444	3286
699.083	3268.18
699.723	3289.27
700.362	3252.55
701.002	3255.82
701.641	3240
702.28	3281.82
702.919	3254
703.558	3256.73
704.198	3269.82
704.836	3246.18
705.475	3291.82
706.114	3299.27
706.753	3238.91
707.392	3231.82
708.03	3240.18
708.669	3255.27
709.307	3240.36
709.946	3245.45
710.584	3219.64
711.222	3254.91
711.86	3257.27
712.499	3235.82
713.137	3270.91
713.775	3292.18
714.412	3266.91
715.05	3240.18
715.688	3239.45
716.326	3239.82
716.963	3290.91
717.601	3202.91
718.238	3210.18
718.876	3275.64
719.513	3211.27
720.15	3249.27
720.788	3282.18
721.425	3284.36
722.062	3262
722.699	3259.09
723.336	3266.91
723.972	3229.64
724.609	3270.36
725.246	3176
725.883	3256.73
726.519	3270.55
727.156	3272.73
727.792	3169.09
728.428	3252.91
729.065	3267.64
729.701	3263.27
730.337	3230.36
730.973	3255.64
731.609	3222.18
732.245	3264
732.881	3210.36
733.517	3303.09
734.152	3180.55
734.788	3255.45
735.423	3227.09
736.059	3202.73
736.694	3238.73
737.33	3255.64
737.965	3214.36
738.6	3205.45
739.235	3269.64
739.87	3245.45
740.505	3276.18
741.14	3247.27
741.775	3206
742.41	3227.45
743.045	3259.64
743.679	3256.73
744.314	3263.09
744.948	3236.73
745.583	3253.45
746.217	3249.45
746.852	3254.36
747.486	3238
748.12	3257.64
748.754	3254.91
749.388	3263.09
750.022	3260.55
750.656	3274.55
751.29	3219.27
751.923	3220.91
752.557	3256.55
753.191	3224.36
753.824	3264
754.457	3218.91
755.091	3256.18
755.724	3244
756.357	3303.45
756.991	3235.27
757.624	3235.09
758.257	3258.91
758.89	3264
759.523	3213.27
760.155	3233.09
760.788	3266.36
761.421	3264
762.053	3282.73
762.686	3233.45
763.318	3230.73
763.951	3220.18
764.583	3219.64
765.215	3245.27
765.847	3262
766.48	3250.18
767.112	3236
767.744	3253.45
768.375	3239.27
769.007	3222.73
769.639	3231.27
770.271	3282
770.902	3256.36
771.534	3231.09
772.165	3254.73
772.797	3224
773.428	3219.82
774.059	3220.18
774.691	3246
775.322	3185.45
775.953	3207.64
776.584	3241.82
777.215	3277.27
777.845	3250.73
778.476	3263.27
779.107	3224.73
779.738	3252.55
780.368	3231.27
780.999	3223.09
781.629	3223.27
782.259	3223.09
782.89	3262.36
783.52	3234.36
784.15	3215.45
784.78	3242.55
785.41	3233.82
786.04	3231.45
786.67	3235.27
787.3	3250.55
787.929	3230.18
788.559	3236.91
789.189	3183.09
789.818	3193.27
790.448	3211.64
791.077	3219.45
791.706	3226
792.335	3231.09
792.965	3188.36
793.594	3235.64
794.223	3247.09
794.852	3244.91
795.481	3227.64
796.109	3237.45
796.738	3210
797.367	3197.45
797.995	3218.91
798.624	3216.91
799.252	3267.82
799.881	3199.64
800.509	3197.64
801.137	3231.45
801.765	3216
802.394	3226.91
803.022	3220.36
803.65	3223.27
804.277	3191.64
804.905	3186.18
805.533	3214.55
806.161	3239.64
806.788	3221.64
807.416	3242.55
808.043	3198
808.671	3222.18
809.298	3250.36
809.925	3222.91
810.553	3222.18
811.18	3235.45
811.807	3221.64
812.434	3186
813.061	3212.18
813.688	3255.82
814.314	3239.82
814.941	3208
815.568	3197.09
816.194	3206.55
816.821	3226.73
817.447	3191.27
818.074	3224.55
818.7	3254.36
819.326	3180.55
819.952	3252.36
820.578	3216
821.204	3195.27
821.83	3261.45
822.456	3239.64
823.082	3240.73
823.708	3194.18
824.333	3201.09
824.959	3268.55
825.585	3219.82
826.21	3222.55
826.835	3193.09
827.461	3246.91
828.086	3199.45
828.711	3242.91
829.336	3229.09
829.961	3228.55
830.586	3222
831.211	3232.91
831.836	3188.73
832.461	3226.55
833.085	3216.55
833.71	3227.45
834.335	3283.82
834.959	3255.09
835.584	3246.91
836.208	3232.91
836.832	3244.18
837.456	3239.09
838.08	3204.55
838.705	3232.18
839.329	3194.91
839.952	3197.82
840.576	3197.82
841.2	3251.27
841.824	3188
842.447	3213.82
843.071	3258.73
843.695	3249.64
844.318	3187.27
844.941	3236
845.565	3232.36
846.188	3220
846.811	3260.91
847.434	3178.18
848.057	3204.36
848.68	3201.64
849.303	3238.18
849.926	3266.73
850.549	3234.36
851.171	3250.73
851.794	3224
852.416	3264.91
853.039	3240.18
853.661	3196.91
854.284	3280
854.906	3238.73
855.528	3201.09
856.15	3211.82
856.772	3257.45
857.394	3222.18
858.016	3231.45
858.638	3238.91
859.26	3248.18
859.882	3201.27
860.503	3211.64
861.125	3204.18
861.746	3229.09
862.368	3257.82
862.989	3224.18
863.61	3192.55
864.232	3168
864.853	3203.09
865.474	3213.64
866.095	3219.82
866.716	3167.09
867.337	3228.55
867.958	3242
868.578	3202.73
869.199	3184
869.82	3235.64
870.44	3217.27
871.061	3219.09
871.681	3277.82
872.301	3243.82
872.922	3205.27
873.542	3211.09
874.162	3209.82
874.782	3185.09
875.402	3224.73
876.022	3167.09
876.642	3188.91
877.261	3219.45
877.881	3229.82
878.501	3197.09
879.12	3224
879.74	3224.55
880.359	3208
880.979	3209.27
881.598	3236.18
882.217	3175.64
882.836	3247.09
883.455	3210
884.075	3188.18
884.693	3180.73
885.312	3192.73
885.931	3238.73
886.55	3239.45
887.169	3212.18
887.787	3233.27
888.406	3250.73
889.024	3233.64
889.643	3194.18
890.261	3208.55
890.879	3263.45
891.497	3245.45
892.116	3196.73
892.734	3203.27
893.352	3215.09
893.969	3248.73
894.587	3223.82
895.205	3255.09
895.823	3191.27
896.44	3197.45
897.058	3214.18
897.676	3172.91
898.293	3244.36
898.91	3211.82
899.528	3240
900.145	3191.82
900.762	3209.09
901.379	3197.82
901.996	3221.27
902.613	3204.55
903.23	3201.45
903.847	3181.27
904.464	3188.91
905.08	3164.91
905.697	3165.64
906.313	3239.09
906.93	3258.91
907.546	3184.91
908.163	3163.27
908.779	3230.36
909.395	3206.73
910.011	3206.91
910.627	3208.18
911.243	3201.82
911.859	3207.82
912.475	3180.18
913.091	3192.36
913.707	3200.36
914.322	3222.73
914.938	3234.91
915.553	3232
916.169	3168.55
916.784	3180.73
917.4	3191.64
918.015	3225.45
918.63	3168.55
919.245	3214.36
919.86	3181.09
920.475	3226.55
